    Gamma-Ray Yields from Thermal Neutrons on Mg
 
          Energy(De)        Intensity
   -------------------------------------
           3916.7 20          48.62
           2828.1 20          42.51
           1808.9 20          29.97
            585.2 20          25.55
           3054.1 20          12.90
           3301.1 20           8.89
           1890.2 20           8.65
           1129.4 20           8.46
           1690.1 20           7.77
           3830.7 20           6.72
              390  2           6.68
           3413.6 20           6.47
            559.6 20           6.03
           1632.8 20           5.50
            976.2 20           5.28
           8154.4 20           4.74
           2043.4 20           4.19
              693  2           4.05
           2048.4 20           3.88
           2880.3 20           3.78
             1714  2           3.53
           5451.8 20           3.30
            277.7 20           3.05
             1750  2           3.01
            608.4 20           2.60
           6111.4 20           2.27
             2541  2           2.24
            326.6 20           2.20
            436.3 20           2.19
            479.6 20           2.00
           1982.4 20           1.87
           2963.6 20           1.56
           4216.5 20           1.54
           6354.8 20           1.52
           5526.9 20           1.39
           4966.6 20           1.38
           3743.7 20           1.36
           5295.9 20           1.27
           3139.5 20           1.13
           3209.4 20           1.12
           2658.6 20           1.07
           3808.4 20           0.96
           2581.5 20           0.95
           5196.6 20           0.92
           3319.8 20           0.92
           2607.7 20           0.91
           3478.4 20           0.89
           2938.9 20           0.85
             6570  2           0.80
           4257.6 20           0.79
           6914.2 20           0.76
           3160.4 20           0.76
           9282.3 20           0.75
           7252.4 20           0.75
           3360.3 20           0.74
           2623.8 20           0.74
           4509.8 20           0.69
           2709.1 20           0.68
           2642.6 20           0.68
           7180.3 20           0.67
           6273.9 20           0.67
           3498.7 20           0.66
           3870.1 20           0.64
           3515.2 20           0.62
           6253.3 20           0.61
           5611.5 20           0.61
             3562  2           0.61
           5560.3 20           0.60
           6319.1 20           0.58
             5157  2           0.58
           6442.2 20           0.57
           4602.3 20           0.56
           7569.9 20           0.55
           6508.3 20           0.55
           5545.2 20           0.55
           6709.3 20           0.54
             3631  2           0.54
           3184.7 20           0.54
           5224.1 20           0.52
           4411.5 20           0.52
           7160.5 20           0.49
           7599.8 20           0.48
           6419.5 20           0.46
           6037.8 20           0.44
           4136.9 20           0.42
           7676.9 20           0.40
           3549.6 20           0.40
           4285.3 20           0.39
           7304.1 20           0.38
           6175.8 20           0.38
             6600  2           0.37
           6490.6 20           0.36
           5587.9 20           0.36
           6619.2 20           0.35
             5890  2           0.35
           3598.2 20           0.35
           6471.2 20           0.33
           5822.7 20           0.33
           4078.4 20           0.33
   -------------------------------------
