    Gamma-Ray Yields from Thermal Neutrons on Mo
 
          Energy(De)        Intensity
   -------------------------------------
            778.3 20          36.92
            848.8 20          14.52
            720.3 20           7.35
           1091.2 20           3.80
           1200.9 20           3.69
           6919.3 20           3.24
            786.8 20           3.21
            609.2 20           2.41
           1497.8 20           2.05
            737.4 20           1.91
           2663.9 20           1.68
            580.2 20           1.58
           2009.9 20           1.52
           1923.3 20           1.46
            252.4 20           1.43
           1566.6 20           1.34
           5712.5 20           1.32
           1318.1 20           1.28
            480.1 20           1.26
            573.7 20           1.25
            244.7 20           1.22
            569.7 20           1.13
            370.8 20           1.02
           2400.8 20           0.87
           1702.5 20           0.79
           6364.4 20           0.73
           1188.8 20           0.70
            350.1 20           0.66
            592.1 20           0.65
           6625.1 20           0.63
           1762.8 20           0.60
           7526.9 20           0.59
             5602  2           0.59
            264.1 20           0.59
           1458.8 20           0.58
           1107.3 20           0.57
           2375.7 20           0.55
           8373.7 20           0.54
           1594.6 20           0.54
           1618.1 20           0.51
           1569.4 20           0.50
           5247.3 20           0.47
           4503.2 20           0.47
           5531.1 20           0.46
           4493.4 20           0.46
           4442.9 20           0.46
           2111.6 20           0.46
            759.8 20           0.46
           1958.6 20           0.45
           6128.5 20           0.44
            968.2 20           0.44
           3692.5 20           0.41
           1563.1 20           0.41
           5951.5 20           0.40
           4741.2 20           0.40
           5543.9 20           0.39
           4681.7 20           0.38
           2506.8 20           0.37
           1229.3 20           0.37
           3606.2 20           0.36
             1775  2           0.36
           2958.6 20           0.35
             2653  2           0.35
           6673.8 20           0.34
           4933.8 20           0.34
           2645.1 20           0.32
            811.7 20           0.31
            678.8 20           0.31
            304.6 20           0.30
           3132.7 20           0.29
           2423.4 20           0.29
           5738.2 20           0.27
           4880.1 20           0.27
           3736.6 20           0.27
             4925  2           0.26
           4049.8 20           0.26
           4767.6 20           0.25
           3300.3 20           0.25
           2586.3 20           0.25
           4613.7 20           0.24
           3932.3 20           0.24
           3831.4 20           0.24
           3645.9 20           0.24
            308.6 20           0.24
           5818.7 20           0.23
           5218.5 20           0.23
           4542.8 20           0.23
           2795.4 20           0.23
           6066.5 20           0.22
           2846.7 20           0.22
              228  2           0.22
            279.8 20           0.21
            268.7 20           0.21
           4325.4 20           0.20
           3009.2 20           0.20
           2792.7 20           0.20
           6020.4 20           0.19
           5285.1 20           0.19
           2812.5 20           0.19
           2451.5 20           0.19
            193.1 20           0.19
            550.8 20           0.18
            222.2 20           0.18
            405.6 20           0.17
            297.9 20           0.17
           3329.1 20           0.16
           3058.2 20           0.16
            187.5 20           0.16
             6455  2           0.15
           5043.6 20           0.15
           4294.4 20           0.15
           3896.9 20           0.15
           4789.1 20           0.14
           5427.4 20           0.13
           4840.4 20           0.13
           4356.2 20           0.13
           3953.4 20           0.13
           3915.2 20           0.13
           3213.3 20           0.13
           5869.2 20           0.12
           5649.6 20           0.12
           5404.9 20           0.12
           4380.8 20           0.12
           4205.6 20           0.12
           3490.1 20           0.12
           2750.4 20           0.12
           3996.3 20           0.11
             3260  2           0.11
           3236.4 20           0.11
            450.4 20           0.11
           7642.1 20           0.10
           5107.2 20           0.10
           4018.5 20           0.10
           6180.2 20           0.09
           4957.2 20           0.09
           4660.2 20           0.09
           3971.1 20           0.09
           3672.3 20           0.09
           3473.5 20           0.09
           6559.5 20           0.08
           4228.1 20           0.08
           3750.9 20           0.08
           4806.6 20           0.07
           4757.7 20           0.07
           4529.8 20           0.07
           4268.2 20           0.07
           4179.2 20           0.07
           4649.6 20           0.06
           4308.9 20           0.06
           4071.4 20           0.06
           7414.7 20           0.05
           5117.4 20           0.05
             5078  2           0.04
           5031.1 20           0.04
   -------------------------------------
