    Gamma-Ray Yields from Thermal Neutrons on Zn
 
          Energy(De)        Intensity
   -------------------------------------
           1077.4 20          18.93
           7863.3 20          10.58
           1883.9 20           6.79
           2212.9 20           3.54
           5473.6 20           3.35
           6958.5 20           2.96
           1007.4 20           2.80
            834.6 20           2.73
           1340.5 20           2.39
            806.6 20           2.05
           1618.3 20           2.01
           1262.1 20           1.95
           1674.2 20           1.93
           6867.5 20           1.62
             4137  2           1.60
            752.1 20           1.59
             7112  2           1.49
            299.9 20           1.39
           6910.5 20           1.37
           2419.4 20           1.30
           7069.2 20           1.29
           2345.9 20           1.20
            530.8 20           1.16
           5776.6 20           1.14
           6658.2 20           1.11
           9118.2 20           1.09
           6037.4 20           1.07
           1746.3 20           1.07
            909.5 20           1.07
           6769.8 20           1.00
           2286.8 20           1.00
           7188.7 20           0.93
           5559.6 20           0.93
           1126.7 20           0.93
           6481.6 20           0.91
           5909.4 20           0.88
           6509.1 20           0.83
            596.4 20           0.73
           8313.9 20           0.71
           2858.1 20           0.71
            932.8 20           0.70
           1354.5 20           0.69
             4828  2           0.68
            270.2 20           0.67
            203.9 20           0.62
           2403.9 20           0.59
            308.9 20           0.55
            251.2 20           0.50
           6262.7 20           0.47
           4653.2 20           0.47
           3287.5 20           0.47
            578.4 20           0.46
            434.7 20           0.44
           3361.1 20           0.43
           4582.9 20           0.42
           5786.6 20           0.41
           4783.9 20           0.41
              580  2           0.40
           5647.2 20           0.39
           5246.9 20           0.39
           4888.3 20           0.39
           6703.4 20           0.38
           5520.2 20           0.37
           4164.1 20           0.37
           5762.2 20           0.36
           3774.8 20           0.35
           3586.7 20           0.35
           2736.2 20           0.35
           3331.7 20           0.34
             2650  2           0.34
           3458.2 20           0.33
           4425.4 20           0.32
           3093.5 20           0.32
           3340.1 20           0.29
           6421.2 20           0.28
           4028.2 20           0.28
            226.7 20           0.28
            208.2 20           0.28
           3281.6 20           0.26
           5340.8 20           0.25
           5287.8 20           0.25
           3398.7 20           0.23
           2769.2 20           0.23
             4795  2           0.22
           3833.5 20           0.22
            221.9 20           0.20
           5206.4 20           0.19
           5982.6 20           0.18
           5661.7 20           0.17
             5162  2           0.17
           5035.3 20           0.17
           4869.7 20           0.17
           4446.8 20           0.17
           4390.6 20           0.17
           2921.3 20           0.17
           3874.5 20           0.16
           3136.5 20           0.16
              457  2           0.16
           4756.5 20           0.15
           3957.3 20           0.15
           4750.9 20           0.14
           3717.9 20           0.14
           5404.1 20           0.13
           5685.4 20           0.12
   -------------------------------------
